# 	 t (ps)	 T (K)	E (eV)	K (eV)	P (Bar)	MSD_I(Å²)	MSD_Ag(Å²)
5.1	576.50399	-1158.8239	64.309888	17816.877	0.092136107	0.12138133
5.2	612.37696	-1161.0658	68.311571	17049.987	0.20673317	0.41845357
5.3	597.17806	-1157.8305	66.616111	18055.595	0.25338597	0.77347816
5.4	602.04694	-1157.0774	67.159242	17226.398	0.29107248	1.0718578
5.5	606.67352	-1156.6836	67.675344	16999.736	0.31373859	1.3420063
5.6	634.98295	-1159.7448	70.833303	17418.627	0.30378459	1.6064205
5.7	590.21069	-1155.6392	65.838891	17892.641	0.30819782	1.8517998
5.8	578.89299	-1154.551	64.576384	18067.347	0.31305009	2.0833207
5.9	613.60017	-1158.0168	68.448023	17920.862	0.30373605	2.2929661
6.0	605.51548	-1157.2348	67.546163	16974.669	0.28923641	2.5024483
6.1	584.99727	-1155.4482	65.257326	17305.433	0.28745758	2.7408048
6.2	605.31319	-1157.6749	67.523598	18020.944	0.30122389	2.9713214
6.3	589.52179	-1155.8729	65.762043	17783.963	0.30798236	3.1708721
6.4	602.01313	-1156.8682	67.155471	17611.615	0.31361534	3.3048729
6.5	607.56496	-1156.5594	67.774786	18188.967	0.32076061	3.4454188
6.6	606.2079	-1155.5549	67.623403	18086.367	0.31991225	3.6163324
6.7	625.01094	-1156.9396	69.720912	17401.636	0.31184552	3.8017968
6.8	613.46493	-1155.6133	68.432937	18295.818	0.31602513	4.0090877
6.9	638.85976	-1159.9132	71.265768	17861.794	0.32987775	4.2146818
7.0	597.9081	-1158.6421	66.697548	18084.295	0.34128913	4.455279
7.1	597.81286	-1160.218	66.686925	17703.913	0.33804713	4.6974682
7.2	590.58557	-1160.3156	65.88071	16901.921	0.33967007	4.9375274
7.3	588.6693	-1160.2	65.666946	17223.511	0.33527767	5.1565725
7.4	578.03596	-1158.3834	64.480782	17854.196	0.33406426	5.4279093
7.5	619.75878	-1161.8665	69.135025	16946.768	0.33927135	5.692062
7.6	575.21136	-1155.8992	64.165693	18148.66	0.35741199	5.9671845
7.7	597.07967	-1156.27	66.605136	17973.824	0.34850684	6.2136936
7.8	613.68578	-1156.0865	68.457573	17569.7	0.33590404	6.4080331
7.9	609.90135	-1154.7823	68.035414	17727.408	0.3325563	6.6031247
8.0	619.21811	-1155.74	69.074712	17294.513	0.33345258	6.8057936
8.1	610.1786	-1155.3683	68.066342	17486.62	0.34589592	7.0257022
8.2	617.49869	-1157.1254	68.882908	17680.788	0.37943397	7.2287276
8.3	624.44352	-1159.2626	69.657614	17392.623	0.40103614	7.4166383
8.4	582.73919	-1155.6973	65.005434	17673.688	0.39967272	7.6472443
8.5	609.6983	-1158.7576	68.012763	17566.368	0.37850329	7.9278616
8.6	600.5108	-1158.0807	66.987883	17264.245	0.38470324	8.1229488
8.7	603.16252	-1159.0114	67.283687	17668.08	0.38675277	8.271478
8.8	590.39683	-1158.4313	65.859656	17590.472	0.37923696	8.3990742
8.9	578.17682	-1157.5796	64.496494	17136.105	0.3749088	8.4778873
9.0	590.0457	-1158.0392	65.820486	17467.657	0.36912331	8.517908
9.1	621.83804	-1159.3842	69.36697	17162.809	0.36643586	8.6293814
9.2	610.81303	-1156.7935	68.137112	17225.441	0.3657655	8.858492
9.3	609.76134	-1155.7266	68.019795	17216.344	0.37511417	9.1297257
9.4	613.11508	-1155.3397	68.39391	17952.025	0.38606917	9.3296222
9.5	633.80996	-1157.5876	70.702455	17931.37	0.39914313	9.5121597
9.6	604.80313	-1156.5379	67.466699	18119.026	0.41080208	9.6788614
9.7	586.81114	-1157.3466	65.459666	17158.277	0.41217473	9.859178
9.8	588.27125	-1158.3345	65.622543	17368.512	0.40995624	10.057205
9.9	592.80166	-1158.637	66.127918	17160.254	0.40502395	10.191626
10.0	582.37017	-1156.7902	64.964269	17587.311	0.4071099	10.307059
10.1	616.8676	-1159.4878	68.812509	17272.577	0.40387933	10.506159
10.2	595.10069	-1156.1008	66.384378	17559.85	0.39667546	10.792342
10.3	601.58941	-1155.3442	67.108204	17176.804	0.39653348	11.082454
10.4	613.12353	-1155.0616	68.394853	17663.471	0.39176754	11.344727
10.5	622.2117	-1154.6205	69.408652	17669.728	0.37528212	11.601701
10.6	637.48962	-1154.7328	71.112927	18085.078	0.37550121	11.869184
10.7	640.8326	-1153.937	71.485841	17894.099	0.39135808	12.111996
10.8	633.01053	-1153.5633	70.613277	17772.63	0.39847095	12.38631
10.9	608.97716	-1153.8242	67.932319	17878.969	0.4002836	12.675066
11.0	599.12603	-1155.0879	66.83341	18107.425	0.39631134	12.954001
11.1	599.54363	-1156.2716	66.879995	17737.907	0.3996697	13.083827
11.2	599.134	-1157.0964	66.8343	17667.966	0.40600923	13.156539
11.3	601.33922	-1158.0984	67.080295	17383.024	0.41175616	13.209326
11.4	607.4956	-1159.549	67.767048	17750.931	0.41652806	13.354788
11.5	606.54054	-1160.7654	67.66051	17131.53	0.40788906	13.600765
11.6	578.09666	-1159.2085	64.487553	17641.049	0.39841891	13.832152
11.7	577.26938	-1159.8523	64.395269	17269.55	0.40051688	13.978967
11.8	580.67783	-1159.6491	64.775486	16876.217	0.39665683	14.173324
11.9	625.05313	-1161.8079	69.725617	16366.457	0.37491539	14.429931
12.0	602.90339	-1157.0282	67.254781	17560.096	0.37684592	14.65969
12.1	595.77103	-1155.3121	66.459155	17574.625	0.38420873	14.855129
12.2	617.44781	-1157.4045	68.877233	17611.543	0.39216563	15.065988
12.3	628.95817	-1159.2256	70.161231	18221.986	0.39115044	15.275456
12.4	597.23519	-1157.3176	66.622484	18092.544	0.39110091	15.476038
12.5	578.32229	-1156.021	64.512722	17414.631	0.39832958	15.631189
12.6	607.10264	-1159.2739	67.723213	17713.489	0.39640074	15.822509
12.7	612.96276	-1160.3324	68.376919	17142.206	0.38599201	16.12642
12.8	594.76594	-1159.0736	66.347035	16922.306	0.38421876	16.440986
12.9	593.64792	-1159.3563	66.222319	17116.592	0.38221612	16.75091
13.0	610.39446	-1161.1317	68.090421	17428.619	0.3798669	17.088385
13.1	585.04876	-1158.4513	65.263069	17444.608	0.39074304	17.36469
13.2	601.00591	-1159.9322	67.043114	17363.605	0.40957338	17.623753
13.3	603.2303	-1158.476	67.291248	17586.985	0.42553537	17.888686
13.4	612.17382	-1157.1473	68.288912	17030.625	0.43735065	18.084928
13.5	611.71681	-1155.546	68.237931	17351.344	0.46381035	18.191621
13.6	624.55508	-1155.9534	69.670059	18158.569	0.47811442	18.28148
13.7	622.20097	-1155.9019	69.407455	17367.748	0.46679737	18.470795
13.8	593.57778	-1153.8452	66.214495	17984.087	0.45535878	18.654964
13.9	606.79486	-1156.5627	67.68888	17186.449	0.44121565	18.709904
14.0	611.08899	-1158.7766	68.167897	17234.965	0.43019722	18.818833
14.1	585.58484	-1157.8266	65.322871	17931.629	0.42993419	19.030167
14.2	598.24026	-1160.274	66.734601	17017.475	0.41977364	19.301274
14.3	603.37411	-1161.6358	67.30729	16383.542	0.42330227	19.550086
14.4	566.77203	-1157.9699	63.224273	17963.358	0.44448992	19.777397
14.5	594.13595	-1160.2524	66.276759	17736.766	0.44985775	19.971652
14.6	578.23334	-1157.5459	64.502799	17236.456	0.46142656	20.095874
14.7	587.20987	-1157.2875	65.504145	17287.337	0.45543784	20.255167
14.8	602.42449	-1157.8861	67.201359	17576.369	0.44016988	20.383539
14.9	620.38639	-1159.4335	69.205036	17479.812	0.43715659	20.531777
15.0	604.08681	-1158.1894	67.386793	17808.854	0.45439325	20.741825
15.1	589.75859	-1157.4854	65.788458	17487.861	0.45709031	20.899889
15.2	593.59471	-1158.503	66.216383	17409.409	0.444062	20.998149
15.3	591.1858	-1158.7898	65.947666	17434.797	0.43590469	21.117606
15.4	598.70838	-1160.335	66.786821	17122.199	0.43113046	21.262747
15.5	572.43548	-1158.4754	63.856039	17436.345	0.43354585	21.393986
15.6	583.11383	-1159.7452	65.047226	17093.828	0.43415329	21.545944
15.7	593.55903	-1159.7922	66.212403	16956.727	0.42891275	21.709487
15.8	612.16731	-1160.2808	68.288185	17775.295	0.40906425	21.912453
15.9	602.22006	-1157.8577	67.178554	17456.914	0.39463684	22.130768
16.0	612.88015	-1157.9447	68.367703	17150.217	0.39419382	22.367613
16.1	612.29255	-1157.3835	68.302156	17345.717	0.40570889	22.695743
16.2	606.39844	-1156.6784	67.644659	17192.475	0.40116291	23.05613
16.3	611.70207	-1157.7704	68.236286	16995.806	0.41716389	23.388612
16.4	601.76329	-1158.5092	67.127601	17617.188	0.42818522	23.748248
16.5	578.45647	-1158.0231	64.527689	17440.803	0.4197401	24.048448
16.6	599.49325	-1161.3543	66.874374	17561.103	0.40650884	24.387325
16.7	561.74336	-1157.7241	62.663317	17586.564	0.42529867	24.610197
16.8	582.9555	-1159.3023	65.029563	17452.035	0.43298013	24.824109
16.9	579.65659	-1156.7054	64.661565	17737.118	0.4436742	25.017572
17.0	619.93459	-1158.8268	69.154636	18023.688	0.45207577	25.150395
17.1	591.5089	-1155.4085	65.983708	18287.132	0.45247883	25.320135
17.2	582.52622	-1154.131	64.981677	18298.75	0.4393394	25.31797
17.3	618.79203	-1157.5315	69.027182	17500.926	0.431463	25.390599
17.4	621.42737	-1158.331	69.321159	17559.242	0.41990215	25.512549
17.5	602.56478	-1157.9107	67.217008	16960.097	0.4113073	25.564327
17.6	604.57968	-1160.3495	67.441774	16805.574	0.40627047	25.583935
17.7	585.26818	-1159.9735	65.287546	16949.746	0.39045188	25.772187
17.8	572.69737	-1158.6507	63.885253	16872.387	0.37522594	26.010298
17.9	590.87241	-1159.924	65.912706	17311.832	0.37440736	26.355973
18.0	600.33511	-1160.1666	66.968285	17453.393	0.38036866	26.697749
18.1	583.83144	-1157.3587	65.127276	17221.556	0.38366305	26.872
18.2	591.09865	-1156.7284	65.937945	17214.3	0.38031524	26.99624
18.3	605.96652	-1156.9145	67.596477	17293.548	0.3841001	27.117499
18.4	608.16978	-1156.4288	67.842254	17212.002	0.39279177	27.232727
18.5	602.15711	-1155.7474	67.171532	17185.414	0.38682793	27.364678
18.6	608.95309	-1156.5907	67.929634	16997.086	0.37847574	27.568355
18.7	602.8709	-1156.2295	67.251156	17215.625	0.37170257	27.805319
18.8	606.22574	-1157.2568	67.625394	17024.488	0.38202855	28.152549
18.9	596.838	-1156.6661	66.578177	17217.673	0.40595563	28.606044
19.0	602.1471	-1157.3885	67.170416	16932.463	0.41231939	29.042843
19.1	604.96235	-1157.829	67.48446	16837.185	0.39974765	29.296558
19.2	591.09234	-1156.4527	65.93724	17283.882	0.39930154	29.529073
19.3	582.65257	-1155.5742	64.995772	17405.698	0.41110835	29.870361
19.4	627.17367	-1160.3233	69.962167	17099.571	0.39916335	30.18708
19.5	591.0191	-1156.8991	65.929071	17218.102	0.41105025	30.436758
19.6	583.17375	-1157.6386	65.05391	17567.02	0.40852606	30.631534
19.7	577.80552	-1159.5352	64.455075	17241.967	0.39701579	30.729602
19.8	580.66872	-1160.9986	64.77447	17026.938	0.39167365	30.792475
19.9	595.49967	-1162.7645	66.428885	16831.21	0.40376679	30.924435
20.0	583.26592	-1160.9326	65.064191	17491.904	0.41340975	31.151855
20.1	584.83206	-1159.3291	65.238896	17470.912	0.41784005	31.377287
20.2	609.65922	-1159.6695	68.008403	17783.486	0.42144109	31.544028
20.3	605.40446	-1157.9877	67.533778	17491.154	0.42438359	31.823763
20.4	607.76686	-1158.117	67.797309	17483.065	0.43814232	32.209052
20.5	606.52321	-1158.5167	67.658578	17709.36	0.46431982	32.543384
20.6	590.22154	-1157.1822	65.840101	17876.579	0.47665813	32.696148
20.7	608.34634	-1159.1942	67.86195	17331.421	0.46105406	32.818115
20.8	591.81609	-1158.0953	66.017976	17271.943	0.45843086	33.0149
20.9	593.8889	-1159.9807	66.249201	16966.55	0.46273679	33.253244
21.0	570.23466	-1159.7804	63.610535	17139.058	0.46447031	33.418359
21.1	573.97518	-1161.5604	64.027795	17126.684	0.45880551	33.542127
21.2	575.04675	-1161.4872	64.147331	17129.606	0.42960558	33.67903
21.3	568.99982	-1159.0489	63.472786	17229.812	0.41873017	33.752004
21.4	609.96077	-1160.919	68.042042	17443.203	0.43941982	33.899994
21.5	597.48557	-1158.4661	66.650415	16703.356	0.46092484	34.079585
21.6	594.0547	-1157.4612	66.267696	17059.196	0.46029511	34.185586
21.7	598.52061	-1157.2112	66.765874	17877.184	0.44213784	34.266445
21.8	615.88694	-1158.5319	68.703115	17607.098	0.42612092	34.396606
21.9	597.94433	-1156.8052	66.70159	17621.347	0.42671574	34.457984
22.0	574.45467	-1154.5093	64.081284	17916.235	0.45018318	34.459875
22.1	605.69134	-1157.1723	67.565781	17397.478	0.46804749	34.546189
22.2	631.00346	-1158.6303	70.389386	17145.221	0.46085555	34.740088
22.3	600.4087	-1154.4546	66.976495	17934.491	0.42942418	35.096505
22.4	608.46625	-1155.1304	67.875326	17763.087	0.40008782	35.465184
22.5	613.83696	-1156.204	68.474437	17582.713	0.38253941	35.627382
22.6	592.72056	-1155.4173	66.118871	17591.877	0.38597112	35.64735
22.7	591.33296	-1156.9977	65.964082	17411.452	0.39324741	35.690172
22.8	583.7263	-1157.5024	65.115548	17628.785	0.42163543	35.912834
22.9	602.15887	-1159.8999	67.171728	17447.166	0.44810751	36.182652
23.0	580.1316	-1157.2479	64.714553	17593.401	0.46987776	36.384046
23.1	605.88806	-1159.0848	67.587725	17303.551	0.47761943	36.682788
23.2	618.43506	-1158.2635	68.987362	18400.099	0.48726125	37.12123
23.3	620.42933	-1156.2699	69.209826	18146.264	0.49741196	37.510043
23.4	636.04658	-1157.3926	70.951953	18147.095	0.48593478	37.87254
23.5	613.15594	-1155.7572	68.398469	18112.932	0.47978291	38.022121
23.6	617.7358	-1158.6389	68.909358	18145.382	0.48669462	38.164736
23.7	589.70536	-1157.7151	65.782521	18200.791	0.49560637	38.516092
23.8	610.97822	-1160.5588	68.15554	17969.54	0.49082715	38.835811
23.9	602.84157	-1160.2858	67.247885	17698.344	0.47715216	39.080512
24.0	591.68568	-1159.7449	66.003428	17605.62	0.47365131	39.345701
24.1	596.23707	-1160.5031	66.511143	17499.94	0.44907666	39.636208
24.2	583.41266	-1158.9882	65.080561	17006.612	0.43774414	39.920212
24.3	598.95957	-1159.9547	66.814841	17337.505	0.42218222	40.094302
24.4	623.25062	-1161.0465	69.524545	17047.551	0.40597673	40.209546
24.5	587.53057	-1155.2283	65.539919	17793.527	0.41121395	40.465202
24.6	630.94093	-1158.0945	70.38241	17492.684	0.4058041	40.653114
24.7	626.12956	-1156.8982	69.845695	18377.253	0.39994359	40.705859
24.8	609.65281	-1156.1998	68.007688	18490.026	0.41439857	40.959216
24.9	619.16581	-1158.9942	69.068878	18061.199	0.44542883	41.187386
25.0	606.84305	-1158.9979	67.694256	17697.982	0.4764578	41.345892
